#Acq. time (s)=	10
#Accumulations=	2
#Range (cm-¹)=	100...4000
#Windows=	1
#Auto scanning=	Off
#Autofocus=	Off
#Macrospot=	Off
#AutoExposure=	Off
#Spike filter=	Multiple accum.
#Delay time (s)=	2
#Binning=	1
#Readout mode=	Signal
#DeNoise=	Standard
#ICS correction=	On
#Dark correction=	Off
#Inst. Process=	Off
#Detector Gain=	Best Dynamic
#Detector ADC=	50 kHz HS
#Detector temperature (°C)=	-60.09
#Instrument=	LabRAM HR Evol
#Detector=	SIN-EM FIVIS
#Objective=	x50_VIS_LWD
#Grating=	150 (500nm)
#ND Filter=	25%
#Laser=	633nm_Edge
#Hole=	100.021
#Temperature=	0
#Range=	Visible
#StageXY=	75x50mm Scan+
#StageZ=	Z motor
#X (µm)=	0
#Y (µm)=	0
#Z (µm)=	-51.1
#Full time(s)=	24
#Project=	20_10_27
#Sample=	BU19TS
#Site=	
#Title=	BU19TS-Coltan-reddish_zone_150 (500nm)_633nm_Edge_25%_x50_VIS_LWD_H100um_10sX2
#Remark=	
#Date=	27.10.2020 15:14
#Acquired=	27.10.2020 15:14:04
100.764	234.025
104.022	234.261
107.281	245.969
110.536	261.561
113.791	290.025
117.044	325.374
120.297	372.484
123.546	437.012
126.797	509.274
130.044	603.06
133.291	680.217
136.536	642.286
139.78	546.864
143.022	421.279
146.264	360.588
149.503	311.988
152.741	308.492
155.979	318.536
159.214	333.007
162.449	349.388
165.682	357.27
168.914	358.676
172.144	363.406
175.374	372.421
178.601	359.023
181.827	336.622
185.053	311.634
188.276	288.481
191.499	274.359
194.719	293.624
197.939	323.396
201.158	366.374
204.374	423.539
207.591	453.403
210.805	406.504
214.017	355.942
217.23	310.803
220.44	290.004
223.648	265.942
226.857	276.693
230.063	286.022
233.267	306.382
236.472	330.016
239.674	372.794
242.874	424.038
246.075	451.047
249.273	469.8
252.47	454.329
255.667	453.155
258.861	463.554
262.053	476.041
265.246	499.267
268.436	489.484
271.625	474.146
274.813	458.666
278	440.527
281.185	420.643
284.369	409.444
287.552	395.971
290.733	395.22
293.913	391.415
297.091	389.278
300.27	391.44
303.445	388.468
306.62	384.009
309.793	377.113
312.965	365.376
316.137	356.915
319.306	349.118
322.474	365.34
325.64	368.297
328.806	340.691
331.971	318.452
335.134	285.733
338.295	280.186
341.456	273.699
344.614	273.806
347.773	276.848
350.93	281.261
354.085	289.602
357.238	298.501
360.391	304.541
363.542	312.502
366.692	313.754
369.842	316.701
372.989	317.021
376.135	326.145
379.28	341.673
382.423	379.067
385.565	421.303
388.706	470.178
391.846	515.812
394.984	551.854
398.123	571.657
401.258	567.902
404.393	533.379
407.526	485.217
410.658	434.027
413.789	388.327
416.918	363.124
420.046	339.233
423.173	327.789
426.299	320.55
429.423	316.388
432.546	314.966
435.668	315.635
438.788	318.548
441.907	321.272
445.025	324.131
448.142	328.698
451.257	330.811
454.372	334.421
457.484	336.884
460.596	339.885
463.706	343.053
466.816	347.083
469.923	352
473.03	358.158
476.135	365.352
479.239	377.776
482.342	389.47
485.444	401.261
488.544	414.154
491.643	426.927
494.741	437.641
497.837	448.453
500.933	452.748
504.027	460.647
507.12	470.195
510.21	485.841
513.3	506.726
516.389	526.237
519.477	548.688
522.563	614.484
525.649	683.71
528.733	747.172
531.815	773.389
534.897	774.861
537.976	752.495
541.055	685.006
544.133	606.639
547.209	536.934
550.285	494.322
553.359	463.184
556.43	440.201
559.502	424.568
562.572	413.033
565.641	405.97
568.709	401.511
571.776	398.702
574.84	394.45
577.904	393.657
580.967	389.605
584.029	388.836
587.09	388.743
590.147	390.231
593.205	392.85
596.262	396.671
599.318	401.996
602.371	408.194
605.424	416.13
608.476	428.429
611.527	440.788
614.575	455.19
617.623	470.499
620.67	484.522
623.716	498.546
626.759	512.246
629.802	530.245
632.844	548.342
635.884	550.964
638.924	548.996
641.962	529.897
644.998	512.928
648.034	493.674
651.069	474.558
654.101	457.379
657.133	441.235
660.165	422.768
663.193	405.157
666.222	388.678
669.25	377.958
672.274	366.46
675.3	359.006
678.324	352.438
681.345	346.72
684.366	343.079
687.385	340.734
690.404	339.742
693.422	339.646
696.438	341.128
699.453	343.17
702.466	344.936
705.479	346.649
708.491	347.745
711.5	349.197
714.51	351.127
717.516	353.297
720.523	355.546
723.528	355.95
726.533	359.359
729.536	362.355
732.537	365.4
735.538	367.678
738.537	369.323
741.535	372.982
744.531	374.578
747.528	375.134
750.521	374.611
753.515	373.755
756.507	372.63
759.498	371.21
762.487	369.127
765.476	369.1
768.463	368.295
771.45	367.063
774.434	368.189
777.417	369.661
780.4	369.406
783.381	373.283
786.362	369.194
789.34	378.509
792.319	387.641
795.294	397.024
798.269	409.815
801.244	424.393
804.217	443.619
807.189	467.537
810.159	496.688
813.128	528.637
816.097	576.734
819.064	630.081
822.03	685.97
824.995	744.94
827.958	799.44
830.921	838.287
833.881	871.061
836.841	905.701
839.801	946.281
842.758	972.853
845.714	1016.99
848.67	1131.46
851.624	1292.44
854.576	1513.21
857.529	1801.16
860.479	2167.87
863.428	2634.93
866.377	3384.01
869.324	4305.79
872.269	5516.51
875.215	6788.04
878.158	7248.23
881.1	6836.42
884.041	5263.54
886.982	3703.38
889.92	2499.31
892.858	1736.08
895.794	1294.04
898.73	1013.18
901.664	815.509
904.597	683.693
907.529	586.99
910.459	519.098
913.39	465.564
916.318	429.578
919.245	401.919
922.171	379.3
925.095	362.207
928.02	344.572
930.943	330.324
933.864	316.633
936.784	306.808
939.703	298.796
942.62	292.084
945.539	286.509
948.454	281.148
951.368	275.621
954.282	270.965
957.194	267.179
960.105	263.888
963.014	261.127
965.924	259.271
968.832	257.562
971.738	256.055
974.643	254.557
977.547	252.913
980.45	250.952
983.352	249.303
986.253	247.808
989.152	246.061
992.051	244.102
994.948	242.099
997.844	239.684
1000.74	237.207
1003.63	234.777
1006.53	233.351
1009.42	232.464
1012.31	231.985
1015.2	231.769
1018.09	231.695
1020.97	231.738
1023.86	231.848
1026.74	232.053
1029.63	232.271
1032.51	232.559
1035.39	232.846
1038.27	233.217
1041.15	233.422
1044.03	233.621
1046.91	233.88
1049.78	234.103
1052.66	234.337
1055.53	234.638
1058.4	235.04
1061.27	235.853
1064.14	236.588
1067.01	237.223
1069.88	237.345
1072.75	236.998
1075.61	236.258
1078.48	236.846
1081.34	237.556
1084.2	238.275
1087.06	238.908
1089.92	239.323
1092.78	239.641
1095.64	239.669
1098.5	239.597
1101.35	239.206
1104.21	238.71
1107.06	237.951
1109.91	237.054
1112.77	236.001
1115.62	234.817
1118.46	233.532
1121.31	231.908
1124.16	230.276
1127	228.725
1129.85	228.245
1132.69	228.238
1135.53	228.536
1138.37	229.04
1141.22	229.676
1144.05	230.143
1146.89	230.515
1149.73	230.708
1152.56	230.741
1155.4	230.507
1158.23	229.998
1161.06	229.267
1163.9	227.909
1166.73	226.021
1169.56	224.04
1172.38	222.275
1175.21	220.903
1178.04	219.712
1180.86	218.784
1183.68	218.094
1186.51	217.476
1189.33	217.001
1192.15	216.532
1194.97	216.93
1197.78	218.424
1200.6	219.954
1203.42	221.202
1206.23	222.162
1209.04	223.128
1211.86	223.839
1214.67	224.419
1217.48	224.856
1220.29	224.398
1223.1	223.036
1225.9	221.863
1228.71	220.397
1231.51	219.008
1234.32	217.678
1237.12	216.454
1239.92	215.324
1242.72	214.305
1245.52	213.415
1248.32	212.668
1251.12	212.05
1253.92	211.602
1256.71	211.339
1259.5	211.153
1262.3	211.17
1265.09	211.266
1267.88	211.413
1270.67	211.976
1273.46	212.675
1276.25	213.401
1279.03	214.149
1281.82	214.934
1284.6	215.65
1287.39	216.057
1290.17	215.14
1292.95	214.596
1295.73	214.102
1298.51	214.867
1301.29	215.629
1304.06	215.278
1306.84	214.829
1309.61	214.301
1312.39	213.703
1315.16	212.747
1317.93	211.589
1320.7	210.57
1323.47	210.43
1326.24	210.848
1329.01	211.495
1331.77	212.4
1334.54	213.428
1337.3	214.44
1340.06	215.466
1342.83	216.309
1345.59	216.88
1348.35	216.792
1351.1	216.672
1353.86	215.904
1356.62	215.105
1359.37	214.281
1362.13	213.476
1364.88	212.716
1367.63	212.169
1370.39	211.726
1373.14	211.385
1375.89	211.263
1378.63	210.987
1381.38	211.439
1384.13	211.967
1386.87	212.591
1389.62	213.235
1392.36	213.949
1395.1	214.692
1397.84	215.446
1400.58	216.244
1403.32	217.002
1406.06	217.803
1408.79	218.328
1411.53	218.795
1414.26	219.263
1417	219.679
1419.73	220.095
1422.46	220.513
1425.19	220.867
1427.92	221.198
1430.65	221.483
1433.38	221.749
1436.1	221.973
1438.83	222.193
1441.55	222.346
1444.27	222.433
1447	222.539
1449.72	222.701
1452.44	223.437
1455.16	224.723
1457.87	224.952
1460.59	225.424
1463.31	225.238
1466.02	224.968
1468.73	224.552
1471.45	224.037
1474.16	223.657
1476.87	223.238
1479.58	223.327
1482.29	223.356
1484.99	223.56
1487.7	223.72
1490.41	223.953
1493.11	224.162
1495.81	224.346
1498.52	224.527
1501.22	224.657
1503.92	224.779
1506.62	224.672
1509.32	224.642
1512.01	224.507
1514.71	224.203
1517.4	223.746
1520.1	223.291
1522.79	222.832
1525.48	222.443
1528.17	223.147
1530.86	223.58
1533.55	223.318
1536.24	222.659
1538.93	221.977
1541.61	221.279
1544.3	220.65
1546.98	220.127
1549.67	219.65
1552.35	219.331
1555.03	219.135
1557.71	219.009
1560.39	218.98
1563.07	219.056
1565.74	219.365
1568.42	219.722
1571.09	220.237
1573.77	220.953
1576.44	221.671
1579.11	222.375
1581.78	223.051
1584.45	222.882
1587.12	222.288
1589.79	221.482
1592.45	220.707
1595.12	219.553
1597.78	218.407
1600.45	217.287
1603.11	216.298
1605.77	215.566
1608.43	215.255
1611.09	214.795
1613.75	215.539
1616.41	216.487
1619.07	217.485
1621.72	218.652
1624.38	219.888
1627.03	220.784
1629.68	221.623
1632.33	222.412
1634.98	223.149
1637.63	223.856
1640.28	224.492
1642.93	225.136
1645.58	225.725
1648.22	226.332
1650.87	226.935
1653.51	227.537
1656.15	228.197
1658.8	228.848
1661.44	229.518
1664.08	230.019
1666.71	230.536
1669.35	231.077
1671.99	231.654
1674.62	232.262
1677.26	232.909
1679.89	233.616
1682.53	234.456
1685.16	235.367
1687.79	236.438
1690.42	237.917
1693.05	239.348
1695.67	241.028
1698.3	242.789
1700.93	244.623
1703.55	246.56
1706.18	248.672
1708.8	250.796
1711.42	252.968
1714.04	255.143
1716.66	257.285
1719.28	259.275
1721.9	261.048
1724.51	262.472
1727.13	263.827
1729.75	265.094
1732.36	266.062
1734.97	266.932
1737.58	267.444
1740.2	267.61
1742.81	266.85
1745.42	265.637
1748.02	263.79
1750.63	261.36
1753.24	258.205
1755.84	254.32
1758.45	249.907
1761.05	245.756
1763.65	242.034
1766.25	238.862
1768.85	236.126
1771.45	233.779
1774.05	231.095
1776.65	228.543
1779.24	226.281
1781.84	224.398
1784.44	222.863
1787.03	221.542
1789.62	220.708
1792.21	220.012
1794.8	219.29
1797.39	218.214
1799.98	217.183
1802.57	216.329
1805.16	215.62
1807.74	215.009
1810.33	214.567
1812.91	214.233
1815.49	213.876
1818.08	213.547
1820.66	213.017
1823.24	212.296
1825.82	211.457
1828.39	210.517
1830.97	209.546
1833.55	208.58
1836.12	207.679
1838.7	206.924
1841.27	206.561
1843.84	206.233
1846.42	206.148
1848.99	206.206
1851.56	206.34
1854.12	207.048
1856.69	207.908
1859.26	208.987
1861.82	210.142
1864.39	211.318
1866.95	212.497
1869.52	213
1872.08	213.597
1874.64	213.942
1877.2	214.205
1879.76	214.31
1882.32	214.175
1884.87	213.71
1887.43	212.761
1889.98	211.411
1892.54	210.219
1895.09	209.25
1897.64	208.804
1900.2	208.634
1902.75	208.594
1905.3	208.717
1907.85	208.65
1910.39	208.329
1912.94	208.098
1915.49	208.017
1918.03	208.186
1920.57	208.745
1923.12	209.838
1925.66	211.018
1928.2	212.347
1930.74	213.466
1933.28	214.251
1935.82	214.855
1938.36	215.394
1940.89	215.789
1943.43	216.068
1945.96	216.406
1948.5	216.702
1951.03	216.824
1953.56	216.662
1956.09	215.878
1958.62	214.719
1961.15	213.466
1963.68	212.139
1966.21	211.204
1968.73	210.422
1971.26	209.77
1973.78	209.188
1976.31	211.053
1978.83	210.172
1981.35	209.123
1983.87	208.281
1986.39	207.652
1988.91	207.299
1991.43	207.172
1993.94	207.397
1996.46	207.793
1998.98	208.607
2001.49	209.607
2004	211.089
2006.52	212.609
2009.03	214.225
2011.54	215.597
2014.05	216.7
2016.56	217.698
2019.06	218.323
2021.57	218.564
2024.08	218.786
2026.58	218.019
2029.08	217.096
2031.59	216.103
2034.09	215.016
2036.59	214.032
2039.09	213.206
2041.59	212.645
2044.09	212.072
2046.59	211.662
2049.08	211.307
2051.58	210.99
2054.07	210.754
2056.57	210.525
2059.06	210.391
2061.55	210.093
2064.05	210.337
2066.54	210.659
2069.02	211.007
2071.51	211.396
2074	211.804
2076.49	212.203
2078.97	212.645
2081.46	213.009
2083.94	213.27
2086.43	213.298
2088.91	213.318
2091.39	213.257
2093.87	213.164
2096.35	213.028
2098.83	212.864
2101.3	212.629
2103.78	212.362
2106.26	212.047
2108.73	211.691
2111.21	211.32
2113.68	210.983
2116.15	210.59
2118.62	210.342
2121.09	210.3
2123.56	209.977
2126.03	209.437
2128.5	208.557
2130.97	207.458
2133.43	206.24
2135.9	204.934
2138.36	203.725
2140.83	202.746
2143.29	202.385
2145.75	204.421
2148.21	204.497
2150.67	204.749
2153.13	205.115
2155.59	205.586
2158.04	206.149
2160.5	206.834
2162.95	207.529
2165.41	208.227
2167.86	208.883
2170.31	209.578
2172.77	210.045
2175.22	210.335
2177.67	210.723
2180.12	211.034
2182.56	211.555
2185.01	212.304
2187.46	213.043
2189.9	213.723
2192.35	214.329
2194.79	214.741
2197.23	214.748
2199.68	214.874
2202.12	215.074
2204.56	214.944
2207	214.48
2209.43	214.004
2211.87	212.99
2214.31	210.935
2216.74	208.429
2219.18	206.076
2221.61	204.241
2224.05	203.06
2226.48	203.084
2228.91	202.262
2231.34	202.437
2233.77	202.842
2236.2	203.314
2238.63	203.802
2241.05	204.21
2243.48	204.532
2245.9	204.808
2248.33	205.043
2250.75	205.196
2253.17	205.396
2255.6	205.571
2258.02	205.798
2260.44	206.09
2262.86	206.35
2265.27	206.732
2267.69	207.096
2270.11	207.601
2272.52	208.245
2274.94	208.761
2277.35	208.599
2279.76	203.934
2282.18	208.562
2284.59	209.95
2287	207.644
2289.41	205.245
2291.82	203.214
2294.23	201.507
2296.63	200.629
2299.04	200.127
2301.44	202.121
2303.85	203.626
2306.25	205.505
2308.65	206.745
2311.05	207.104
2313.46	207.534
2315.86	208.489
2318.25	208.819
2320.65	208.63
2323.05	207.975
2325.45	207.696
2327.84	205.641
2330.24	202.603
2332.63	200.065
2335.03	197.858
2337.42	195.801
2339.81	194.863
2342.2	195.58
2344.59	197.439
2346.98	200.475
2349.37	202.63
2351.75	200.658
2354.14	201.349
2356.52	200.909
2358.91	201.128
2361.29	201.384
2363.67	201.219
2366.06	200.148
2368.44	197.36
2370.82	197.551
2373.2	198.129
2375.58	198.947
2377.95	199.669
2380.33	201.764
2382.71	203.019
2385.08	203.531
2387.46	202.725
2389.83	201.739
2392.2	201.031
2394.57	200.416
2396.95	199.825
2399.32	199.409
2401.68	199.006
2404.05	198.829
2406.42	198.758
2408.79	198.849
2411.15	199.102
2413.52	199.447
2415.88	199.909
2418.25	200.405
2420.61	200.911
2422.97	201.487
2425.33	202.023
2427.69	202.699
2430.05	203.401
2432.41	204.102
2434.77	204.704
2437.12	205.012
2439.48	204.422
2441.83	203.183
2444.19	201.604
2446.54	200.226
2448.89	198.914
2451.24	197.753
2453.6	196.864
2455.95	196.441
2458.29	196.188
2460.64	196.042
2462.99	194.988
2465.34	194.408
2467.68	194.51
2470.03	194.922
2472.37	195.377
2474.72	196.141
2477.06	196.868
2479.4	197.345
2481.74	197.353
2484.08	197.027
2486.42	196.675
2488.76	196.404
2491.1	196.551
2493.43	197.168
2495.77	197.29
2498.1	197.139
2500.44	196.664
2502.77	195.546
2505.1	194.935
2507.43	194.404
2509.76	193.91
2512.1	193.368
2514.42	193.005
2516.75	192.521
2519.08	192.839
2521.41	193.29
2523.73	193.866
2526.06	194.57
2528.38	195.142
2530.71	195.534
2533.03	195.815
2535.35	195.979
2537.67	196.057
2539.99	196.06
2542.31	195.965
2544.63	195.838
2546.95	195.634
2549.26	195.414
2551.58	195.184
2553.89	194.902
2556.21	194.616
2558.52	194.284
2560.84	193.996
2563.15	193.846
2565.46	193.681
2567.77	193.466
2570.08	193.327
2572.39	193.208
2574.7	192.993
2577	192.542
2579.31	192.028
2581.61	191.384
2583.92	189.854
2586.22	188.492
2588.53	187.611
2590.83	187.031
2593.13	186.735
2595.43	186.555
2597.73	187.399
2600.03	188.37
2602.33	189.526
2604.62	190.713
2606.92	191.544
2609.22	192.399
2611.51	193.118
2613.81	193.769
2616.1	194.132
2618.39	193.1
2620.68	191.669
2622.97	190.164
2625.26	188.811
2627.55	190.104
2629.84	187.884
2632.13	186.175
2634.42	184.766
2636.7	183.696
2638.99	182.856
2641.27	182.632
2643.56	182.605
2645.84	182.826
2648.12	183.207
2650.4	183.688
2652.68	184.285
2654.96	184.628
2657.24	185.138
2659.52	185.608
2661.8	186.02
2664.07	186.323
2666.35	186.479
2668.63	186.201
2670.9	185.813
2673.17	184.681
2675.45	184.252
2677.72	183.852
2679.99	183.858
2682.26	183.758
2684.53	183.652
2686.8	183.461
2689.06	183.26
2691.33	183.037
2693.6	182.655
2695.86	182.307
2698.13	181.805
2700.39	181.344
2702.66	180.815
2704.92	180.217
2707.18	179.614
2709.44	178.955
2711.7	178.28
2713.96	177.605
2716.22	176.964
2718.47	176.309
2720.73	175.733
2722.99	175.208
2725.24	174.998
2727.5	175.065
2729.75	175.54
2732	176.493
2734.26	177.385
2736.51	178.153
2738.76	178.189
2741.01	177.793
2743.25	177.373
2745.5	176.952
2747.75	176.401
2750	176.201
2752.24	175.556
2754.49	174.647
2756.73	173.705
2758.98	172.766
2761.22	171.824
2763.46	171.196
2765.7	170.694
2767.94	170.183
2770.18	170.101
2772.42	170.23
2774.66	170.547
2776.9	171.208
2779.13	172.006
2781.37	172.847
2783.6	173.665
2785.84	174.381
2788.07	175.051
2790.3	175.54
2792.53	175.76
2794.77	175.797
2797	175.62
2799.23	175.356
2801.45	175.023
2803.68	174.687
2805.91	174.334
2808.14	174.042
2810.36	173.689
2812.59	173.444
2814.81	173.408
2817.03	173.312
2819.26	173.183
2821.48	173.243
2823.7	173.314
2825.92	173.349
2828.14	173.496
2830.36	173.503
2832.57	173.402
2834.79	173.254
2837.01	172.921
2839.22	172.563
2841.44	172.088
2843.65	171.424
2845.87	170.808
2848.08	170.156
2850.29	169.516
2852.5	168.901
2854.71	168.269
2856.92	167.819
2859.13	167.147
2861.34	166.597
2863.55	165.959
2865.75	165.794
2867.96	166.382
2870.16	167.051
2872.37	167.691
2874.57	168.324
2876.77	168.747
2878.98	169.076
2881.18	169.295
2883.38	169.399
2885.58	169.358
2887.78	169.24
2889.97	168.899
2892.17	168.411
2894.37	167.825
2896.56	167.18
2898.76	166.497
2900.95	165.77
2903.15	165.052
2905.34	164.287
2907.53	163.917
2909.72	163.706
2911.91	164.054
2914.1	164.47
2916.29	164.978
2918.48	165.331
2920.67	165.81
2922.86	166.619
2925.04	168.02
2927.23	168.663
2929.41	169.043
2931.6	169.091
2933.78	168.709
2935.96	167.93
2938.14	167.156
2940.32	166.123
2942.5	165.149
2944.68	164.302
2946.86	163.476
2949.04	162.728
2951.22	162.024
2953.39	161.523
2955.57	161.071
2957.74	160.892
2959.92	160.649
2962.09	160.982
2964.26	161.325
2966.44	161.821
2968.61	162.303
2970.78	162.842
2972.95	163.306
2975.12	163.784
2977.28	164.22
2979.45	163.859
2981.62	163.69
2983.79	163.295
2985.95	162.696
2988.11	161.982
2990.28	161.291
2992.44	160.573
2994.6	159.868
2996.77	159.181
2998.93	158.523
3001.09	158.134
3003.25	157.907
3005.4	157.767
3007.56	157.63
3009.72	157.665
3011.88	157.793
3014.03	158.035
3016.19	158.366
3018.34	158.844
3020.49	159.443
3022.65	160.112
3024.8	161.064
3026.95	162.018
3029.1	162.502
3031.25	162.44
3033.4	162.15
3035.55	161.969
3037.7	161.977
3039.84	161.888
3041.99	161.65
3044.13	161.188
3046.28	160.82
3048.42	159.585
3050.57	158.295
3052.71	156.989
3054.85	155.614
3056.99	154.712
3059.13	153.957
3061.27	153.557
3063.41	153.412
3065.55	153.48
3067.69	153.529
3069.82	153.943
3071.96	154.423
3074.09	154.918
3076.23	155.453
3078.36	155.988
3080.5	156.547
3082.63	156.962
3084.76	157.384
3086.89	157.775
3089.02	158.099
3091.15	158.343
3093.28	158.55
3095.41	158.618
3097.53	158.605
3099.66	158.577
3101.79	158.433
3103.91	158.237
3106.04	157.997
3108.16	157.725
3110.28	157.433
3112.41	157.11
3114.53	156.751
3116.65	156.494
3118.77	156.045
3120.89	155.618
3123.01	155.147
3125.12	154.69
3127.24	154.292
3129.36	153.885
3131.47	153.495
3133.59	153.097
3135.7	152.72
3137.82	152.327
3139.93	151.882
3142.04	151.609
3144.15	151.437
3146.27	151.244
3148.38	151.174
3150.49	151.182
3152.59	151.322
3154.7	151.4
3156.81	151.621
3158.92	151.757
3161.02	151.93
3163.13	152.076
3165.23	152.226
3167.33	152.366
3169.44	152.488
3171.54	152.608
3173.64	152.422
3175.74	152.349
3177.84	152.299
3179.94	152.156
3182.04	152.013
3184.14	151.782
3186.24	151.414
3188.33	151.196
3190.43	150.919
3192.52	150.75
3194.62	150.671
3196.71	150.418
3198.81	149.641
3200.9	147.801
3202.99	146.65
3205.08	145.896
3207.17	145.168
3209.26	144.674
3211.35	144.146
3213.44	144.23
3215.53	146.437
3217.61	146.54
3219.7	146.534
3221.79	146.573
3223.87	146.569
3225.95	147.072
3228.04	147.639
3230.12	148.38
3232.2	149.119
3234.28	149.798
3236.36	150.226
3238.44	150.726
3240.52	151.251
3242.6	151.741
3244.68	152.43
3246.76	153.413
3248.83	154.4
3250.91	155.066
3252.98	155.14
3255.06	155.043
