#Acq. time (s)=	10
#Accumulations=	2
#Range (cm-¹)=	100...4000
#Windows=	1
#Auto scanning=	Off
#Autofocus=	Off
#Macrospot=	Off
#AutoExposure=	Off
#Spike filter=	Single accum. (Size=4)
#Delay time (s)=	2
#Binning=	1
#Readout mode=	Signal
#DeNoise=	Standard
#ICS correction=	On
#Dark correction=	Off
#Inst. Process=	Off
#Detector Gain=	Best Dynamic
#Detector ADC=	50 kHz HS
#Detector temperature (°C)=	-60.09
#Instrument=	LabRAM HR Evol
#Detector=	SIN-EM FIVIS
#Objective=	x20_VIS
#Grating=	150 (500nm)
#ND Filter=	25%
#Laser=	633nm_Edge
#Hole=	30.0125
#Temperature=	0
#Range=	Visible
#StageXY=	75x50mm Scan+
#StageZ=	Z motor
#X (µm)=	0
#Y (µm)=	0
#Z (µm)=	-54.9
#Full time(s)=	24
#Project=	20_10_27
#Sample=	BU19TS
#Site=	
#Title=	BU19TS-Coltan_150 (500nm)_633nm_Edge_25%_x20_VIS_H30um_10sX2
#Remark=	
#Date=	27.10.2020 13:52
#Acquired=	27.10.2020 13:52:36
100.764	34.0083
104.022	34.9538
107.281	37.1781
110.536	37.8697
113.791	43.2839
117.044	48.5546
120.297	54.0325
123.546	59.0541
126.797	63.1005
130.044	67.7986
133.291	67.8882
136.536	63.5635
139.78	57.4019
143.022	51.2413
146.264	43.7861
149.503	39.7134
152.741	38.3846
155.979	38.6087
159.214	39.6725
162.449	41.0488
165.682	43.1579
168.914	45.0767
172.144	47.7143
175.374	48.6019
178.601	48.2554
181.827	47.5382
185.053	46.4008
188.276	45.6867
191.499	44.9245
194.719	44.9376
197.939	45.2994
201.158	46.3419
204.374	46.9928
207.591	47.302
210.805	46.8752
214.017	44.6953
217.23	42.831
220.44	41.0871
223.648	42.981
226.857	43.5336
230.063	44.7336
233.267	46.5267
236.472	52.0692
239.674	64.5231
242.874	75.3272
246.075	76.348
249.273	77.0538
252.47	76.0908
255.667	74.8426
258.861	74.7311
262.053	75.11
265.246	75.0717
268.436	75.219
271.625	76.3039
274.813	74.7043
278	72.2195
281.185	69.8055
284.369	66.9013
287.552	63.7127
290.733	60.6126
293.913	57.4965
297.091	53.8957
300.27	51.4186
303.445	49.3152
306.62	47.3953
309.793	46.4856
312.965	45.9275
316.137	45.473
319.306	45.0003
322.474	44.7573
325.64	44.2191
328.806	43.3981
331.971	42.3609
335.134	41.1619
338.295	39.8919
341.456	38.9835
344.614	38.1479
347.773	37.8711
350.93	37.7733
354.085	37.72
357.238	37.7326
360.391	37.7674
363.542	37.7777
366.692	37.7247
369.842	37.6865
372.989	37.5655
376.135	37.3828
379.28	37.1507
382.423	36.953
385.565	36.7003
388.706	36.5076
391.846	36.3023
394.984	36.1421
398.123	36.0603
401.258	35.9243
404.393	35.9526
407.526	36.1224
410.658	36.2585
413.789	36.487
416.918	36.7508
420.046	36.9965
423.173	37.3666
426.299	37.6983
429.423	38.0792
432.546	38.4855
435.668	38.8781
438.788	39.5444
441.907	40.2774
445.025	41.0972
448.142	42.039
451.257	43.0613
454.372	43.8432
457.484	44.9443
460.596	46.1639
463.706	47.443
466.816	48.6946
469.923	49.9789
473.03	51.6434
476.135	52.9151
479.239	54.0547
482.342	55.1311
485.444	56.1708
488.544	57.073
491.643	57.9602
494.741	58.8228
497.837	59.6396
500.933	60.462
504.027	60.7895
507.12	61.9665
510.21	62.4995
513.3	63.6027
516.389	66.2924
519.477	68.2567
522.563	71.9352
525.649	76.8068
528.733	85.6284
531.815	86.0011
534.897	84.6116
537.976	79.2823
541.055	73.2078
544.133	67.1346
547.209	61.2829
550.285	56.3695
553.359	52.8779
556.43	50.0119
559.502	47.6168
562.572	45.8096
565.641	44.3895
568.709	43.4022
571.776	42.6539
574.84	42.3568
577.904	42.2434
580.967	42.3088
584.029	42.5149
587.09	42.8264
590.147	43.2434
593.205	43.6647
596.262	44.1098
599.318	44.5748
602.371	45.0513
605.424	45.5644
608.476	46.2236
611.527	46.8475
614.575	47.478
617.623	48.0441
620.67	48.5658
623.716	48.9896
626.759	49.2507
629.802	49.354
632.844	49.2539
635.884	48.9627
638.924	48.3038
641.962	47.5781
644.998	46.8335
648.034	45.9001
651.069	44.9773
654.101	44.0305
657.133	43.1372
660.165	42.3261
663.193	41.554
666.222	40.849
669.25	40.3
672.274	39.7848
675.3	39.5097
678.324	39.2961
681.345	39.165
684.366	39.2333
687.385	39.3828
690.404	39.5442
693.422	39.792
696.438	40.0928
699.453	40.474
702.466	40.7984
705.479	41.1455
708.491	41.44
711.5	41.7407
714.51	41.9262
717.516	42.0543
720.523	42.1434
723.528	42.1506
726.533	42.0833
729.536	41.9804
732.537	41.8737
735.538	41.7976
738.537	41.6797
741.535	41.584
744.531	41.4864
747.528	41.4157
750.521	41.4228
753.515	41.4107
756.507	41.47
759.498	41.4652
762.487	41.4374
765.476	41.4316
768.463	41.4339
771.45	41.4265
774.434	41.4346
777.417	41.4461
780.4	41.4673
783.381	41.5137
786.362	41.5628
789.34	41.6358
792.319	41.74
795.294	41.872
798.269	42.0349
801.244	42.4179
804.217	42.8626
807.189	43.6384
810.159	44.4964
813.128	45.4797
816.097	46.6184
819.064	48.0813
822.03	49.699
824.995	51.7514
827.958	53.5444
830.921	56.3188
833.881	58.3676
836.841	61.3528
839.801	65.429
842.758	68.5762
845.714	73.2923
848.67	79.6855
851.624	88.2348
854.576	102.756
857.529	121.128
860.479	146.818
863.428	178.795
866.377	218.419
869.324	277.804
872.269	345.121
875.215	396.665
878.158	414.185
881.1	373.711
884.041	275.164
886.982	197.084
889.92	131.507
892.858	99.3384
895.794	85.1015
898.73	72.5444
901.664	63.8323
904.597	57.1952
907.529	51.7726
910.459	46.2411
913.39	42.1887
916.318	39.6207
919.245	37.9953
922.171	36.8217
925.095	35.7823
928.02	35.191
930.943	34.5022
933.864	34.112
936.784	33.7773
939.703	33.5059
942.62	33.2418
945.539	32.9589
948.454	32.7441
951.368	32.4686
954.282	32.2322
957.194	31.989
960.105	31.7866
963.014	31.4557
965.924	31.1034
968.832	30.7423
971.738	30.3854
974.643	29.9553
977.547	29.5988
980.45	29.2642
983.352	28.9119
986.253	28.6612
989.152	28.4019
992.051	28.1424
994.948	28.0229
997.844	27.9465
1000.74	27.966
1003.63	28.0386
1006.53	28.1449
1009.42	28.2562
1012.31	28.38
1015.2	28.5116
1018.09	28.6478
1020.97	28.698
1023.86	28.6058
1026.74	28.5425
1029.63	28.5037
1032.51	28.3832
1035.39	28.2956
1038.27	28.2029
1041.15	28.14
1044.03	28.0216
1046.91	28.031
1049.78	28.0666
1052.66	28.1958
1055.53	28.3111
1058.4	28.4507
1061.27	28.594
1064.14	28.7149
1067.01	28.8889
1069.88	28.9946
1072.75	29.0768
1075.61	29.0457
1078.48	28.929
1081.34	28.7969
1084.2	28.613
1087.06	28.4404
1089.92	28.2214
1092.78	27.9975
1095.64	27.7854
1098.5	27.558
1101.35	27.3496
1104.21	27.1639
1107.06	26.9763
1109.91	26.9603
1112.77	27.0387
1115.62	27.3095
1118.46	27.5392
1121.31	27.7165
1124.16	27.92
1127	28.1433
1129.85	28.3112
1132.69	28.4506
1135.53	28.6342
1138.37	28.595
1141.22	28.4215
1144.05	28.1913
1146.89	27.894
1149.73	27.5131
1152.56	27.251
1155.4	26.9644
1158.23	26.6954
1161.06	26.4217
1163.9	26.3039
1166.73	26.2055
1169.56	26.1778
1172.38	26.2777
1175.21	26.3351
1178.04	26.392
1180.86	26.477
1183.68	26.5711
1186.51	26.6572
1189.33	26.7529
1192.15	26.8998
1194.97	26.948
1197.78	27.0109
1200.6	27.0355
1203.42	27.0554
1206.23	26.9791
1209.04	26.9608
1211.86	26.9475
1214.67	26.9363
1217.48	26.915
1220.29	26.9205
1223.1	26.905
1225.9	26.9165
1228.71	26.9081
1231.51	26.9118
1234.32	26.8402
1237.12	26.8592
1239.92	26.8851
1242.72	26.9158
1245.52	26.9418
1248.32	26.9732
1251.12	27.0012
1253.92	27.0194
1256.71	27.0233
1259.5	26.8201
1262.3	26.7077
1265.09	26.6651
1267.88	26.7475
1270.67	26.9239
1273.46	26.9442
1276.25	26.8749
1279.03	26.7609
1281.82	26.5949
1284.6	26.3895
1287.39	26.2054
1290.17	26.0718
1292.95	26.0694
1295.73	26.1263
1298.51	26.1698
1301.29	26.0522
1304.06	25.9611
1306.84	25.9136
1309.61	25.8106
1312.39	25.7192
1315.16	25.6605
1317.93	25.6231
1320.7	25.6228
1323.47	25.6537
1326.24	25.6877
1329.01	25.7192
1331.77	25.757
1334.54	25.7926
1337.3	25.8061
1340.06	25.8627
1342.83	26.0193
1345.59	26.3577
1348.35	26.7297
1351.1	26.6832
1353.86	26.6031
1356.62	26.4523
1359.37	26.3182
1362.13	26.1244
1364.88	25.9788
1367.63	26.0061
1370.39	26.0263
1373.14	26.1511
1375.89	26.2454
1378.63	26.4003
1381.38	26.547
1384.13	26.7
1386.87	26.8599
1389.62	27.0095
1392.36	27.1673
1395.1	27.3083
1397.84	27.4514
1400.58	27.5783
1403.32	27.6271
1406.06	27.7168
1408.79	27.7758
1411.53	27.8081
1414.26	27.8158
1417	27.7902
1419.73	27.769
1422.46	27.8479
1425.19	27.8153
1427.92	27.7503
1430.65	27.6397
1433.38	27.5351
1436.1	27.3511
1438.83	27.176
1441.55	27.0373
1444.27	26.9613
1447	27.0186
1449.72	27.1013
1452.44	27.2343
1455.16	27.3789
1457.87	27.5792
1460.59	27.7983
1463.31	27.9942
1466.02	28.16
1468.73	28.0073
1471.45	27.9989
1474.16	27.9791
1476.87	27.9378
1479.58	27.8579
1482.29	27.6858
1484.99	27.5762
1487.7	27.4197
1490.41	27.2283
1493.11	27.0303
1495.81	26.8869
1498.52	26.6998
1501.22	26.4957
1503.92	26.2182
1506.62	25.9915
1509.32	25.925
1512.01	26.0105
1514.71	26.3109
1517.4	27.3087
1520.1	27.9052
1522.79	28.858
1525.48	27.547
1528.17	27.4752
1530.86	27.3986
1533.55	27.337
1536.24	27.3545
1538.93	27.2356
1541.61	27.1257
1544.3	26.9741
1546.98	26.8478
1549.67	26.6904
1552.35	26.5541
1555.03	26.4103
1557.71	26.28
1560.39	26.16
1563.07	26.0441
1565.74	25.9436
1568.42	25.8542
1571.09	25.7119
1573.77	25.7642
1576.44	25.8418
1579.11	25.928
1581.78	26.0922
1584.45	26.2453
1587.12	26.442
1589.79	26.591
1592.45	26.8297
1595.12	27.1067
1597.78	27.2108
1600.45	27.2665
1603.11	27.1902
1605.77	27.146
1608.43	27.0939
1611.09	27.0364
1613.75	26.9839
1616.41	26.9412
1619.07	26.8207
1621.72	26.8106
1624.38	26.784
1627.03	26.7827
1629.68	26.7724
1632.33	26.8337
1634.98	26.8569
1637.63	26.8964
1640.28	26.9303
1642.93	26.9641
1645.58	26.9776
1648.22	27.0609
1650.87	27.036
1653.51	27.0163
1656.15	26.9864
1658.8	26.7312
1661.44	26.6378
1664.08	26.5294
1666.71	26.4341
1669.35	26.3849
1671.99	26.2812
1674.62	26.1646
1677.26	26.0406
1679.89	26.045
1682.53	26.0323
1685.16	26.1477
1687.79	26.2255
1690.42	26.3263
1693.05	26.4752
1695.67	26.5721
1698.3	26.699
1700.93	26.8494
1703.55	26.9121
1706.18	26.8771
1708.8	26.995
1711.42	27.1184
1714.04	27.1255
1716.66	27.1419
1719.28	27.1739
1721.9	27.3558
1724.51	27.4364
1727.13	27.4996
1729.75	27.6427
1732.36	27.777
1734.97	27.9072
1737.58	28.0515
1740.2	28.1709
1742.81	28.395
1745.42	28.5265
1748.02	28.6604
1750.63	28.6609
1753.24	28.6714
1755.84	28.5524
1758.45	28.4887
1761.05	28.1558
1763.65	27.8846
1766.25	27.5614
1768.85	27.2538
1771.45	26.9052
1774.05	26.5904
1776.65	26.4046
1779.24	26.2333
1781.84	26.1854
1784.44	26.1095
1787.03	26.0561
1789.62	26.0179
1792.21	25.9952
1794.8	26.0091
1797.39	26.2528
1799.98	26.5399
1802.57	26.8211
1805.16	27.0337
1807.74	27.2763
1810.33	27.5588
1812.91	27.7538
1815.49	27.8809
1818.08	28.0081
1820.66	28.1297
1823.24	27.9775
1825.82	27.8992
1828.39	27.6737
1830.97	27.427
1833.55	27.1704
1836.12	26.894
1838.7	26.5486
1841.27	26.2872
1843.84	26.0191
1846.42	25.7799
1848.99	25.7255
1851.56	25.6571
1854.12	25.6503
1856.69	25.7262
1859.26	25.8492
1861.82	25.9829
1864.39	26.1328
1866.95	26.2958
1869.52	26.5026
1872.08	26.702
1874.64	26.8621
1877.2	27.1315
1879.76	27.2181
1882.32	27.2979
1884.87	27.2494
1887.43	27.2345
1889.98	27.2172
1892.54	27.1725
1895.09	27.0959
1897.64	27.0459
1900.2	26.8309
1902.75	26.7732
1905.3	26.7282
1907.85	26.6738
1910.39	26.6396
1912.94	26.6639
1915.49	26.6413
1918.03	26.6368
1920.57	26.6719
1923.12	26.6724
1925.66	26.6773
1928.2	26.6746
1930.74	26.6681
1933.28	26.6624
1935.82	26.6479
1938.36	26.6433
1940.89	26.6219
1943.43	26.5425
1945.96	26.5558
1948.5	26.5295
1951.03	26.5441
1953.56	26.5553
1956.09	26.585
1958.62	26.6433
1961.15	26.7962
1963.68	26.8617
1966.21	26.9525
1968.73	27.0123
1971.26	27.0627
1973.78	27.1232
1976.31	27.1051
1978.83	27.1265
1981.35	27.4703
1983.87	27.4478
1986.39	27.4355
1988.91	27.3641
1991.43	27.218
1993.94	27.0468
1996.46	26.8872
1998.98	26.7791
2001.49	26.7223
2004	26.6746
2006.52	26.7208
2009.03	26.9506
2011.54	27.0602
2014.05	27.017
2016.56	26.8166
2019.06	26.8025
2021.57	26.8761
2024.08	26.976
2026.58	27.0181
2029.08	26.8693
2031.59	26.242
2034.09	26.0413
2036.59	25.9558
2039.09	25.9605
2041.59	25.7628
2044.09	25.8593
2046.59	25.9504
2049.08	26.7413
2051.58	26.9709
2054.07	27.1241
2056.57	26.9709
2059.06	26.4992
2061.55	26.2031
2064.05	25.9142
2066.54	25.6759
2069.02	25.4922
2071.51	25.4315
2074	25.4502
2076.49	25.4839
2078.97	25.516
2081.46	25.6294
2083.94	25.8148
2086.43	26.1052
2088.91	26.5808
2091.39	27.9598
2093.87	28.326
2096.35	28.5494
2098.83	28.6307
2101.3	28.4649
2103.78	28.1326
2106.26	27.7403
2108.73	27.3245
2111.21	26.9967
2113.68	26.8384
2116.15	26.8143
2118.62	26.9323
2121.09	27.0189
2123.56	27.0603
2126.03	27.095
2128.5	27.048
2130.97	26.9641
2133.43	26.9623
2135.9	26.9679
2138.36	27.0496
2140.83	27.1484
2143.29	27.0219
2145.75	26.8771
2148.21	26.702
2150.67	26.5582
2153.13	26.4818
2155.59	26.457
2158.04	26.4356
2160.5	26.4165
2162.95	26.3189
2165.41	26.2169
2167.86	26.1568
2170.31	26.1275
2172.77	26.1981
2175.22	26.3172
2177.67	26.43
2180.12	26.746
2182.56	26.8733
2185.01	27.0015
2187.46	26.8127
2189.9	26.9172
2192.35	27.065
2194.79	27.2127
2197.23	27.3902
2199.68	27.5551
2202.12	27.7177
2204.56	27.9147
2207	27.999
2209.43	27.923
2211.87	27.9047
2214.31	27.9195
2216.74	27.8034
2219.18	27.6965
2221.61	27.5607
2224.05	27.4219
2226.48	27.2784
2228.91	27.0924
2231.34	26.8231
2233.77	26.7394
2236.2	26.6665
2238.63	26.6186
2241.05	26.6751
2243.48	26.7236
2245.9	26.7363
2248.33	26.7468
2250.75	26.7638
2253.17	26.7808
2255.6	26.8683
2258.02	26.9459
2260.44	27.0197
2262.86	27.0514
2265.27	27.047
2267.69	27.069
2270.11	27.0579
2272.52	27.0785
2274.94	27.0692
2277.35	27.0707
2279.76	27.0692
2282.18	27.0429
2284.59	27.0735
2287	27.113
2289.41	27.1704
2291.82	27.2203
2294.23	27.2826
2296.63	27.3504
2299.04	27.414
2301.44	27.4904
2303.85	27.5885
2306.25	27.6766
2308.65	27.6657
2311.05	27.8396
2313.46	27.8242
2315.86	27.8085
2318.25	27.7836
2320.65	27.6644
2323.05	27.5494
2325.45	27.4488
2327.84	27.3832
2330.24	27.3046
2332.63	27.2528
2335.03	27.2427
2337.42	27.2142
2339.81	27.1623
2342.2	27.144
2344.59	27.1081
2346.98	27.1759
2349.37	27.1886
2351.75	27.2111
2354.14	27.2177
2356.52	27.2241
2358.91	27.2341
2361.29	27.1514
2363.67	27.1499
2366.06	27.1248
2368.44	27.1082
2370.82	27.0886
2373.2	27.0807
2375.58	27.0562
2377.95	27.0706
2380.33	27.013
2382.71	26.98
2385.08	26.9139
2387.46	26.8691
2389.83	26.7929
2392.2	26.7331
2394.57	26.6509
2396.95	26.5787
2399.32	26.504
2401.68	26.4269
2404.05	26.3156
2406.42	26.2739
2408.79	27.0223
2411.15	27.7923
2413.52	29.3203
2415.88	29.8625
2418.25	30.0678
2420.61	29.0178
2422.97	28.4052
2425.33	27.8336
2427.69	27.4924
2430.05	28.0088
2432.41	27.9869
2434.77	27.9968
2437.12	28.0588
2439.48	28.2397
2441.83	28.1592
2444.19	28.0544
2446.54	27.9125
2448.89	27.759
2451.24	27.5881
2453.6	27.4193
2455.95	27.2781
2458.29	27.1171
2460.64	27.0067
2462.99	27.0175
2465.34	27.0048
2467.68	26.991
2470.03	27.0248
2472.37	27.0068
2474.72	26.9125
2477.06	26.7969
2479.4	26.843
2481.74	26.9156
2484.08	27.0097
2486.42	27.0812
2488.76	27.2
2491.1	27.4012
2493.43	27.5486
2495.77	27.6214
2498.1	27.5802
2500.44	27.4142
2502.77	27.1469
2505.1	26.7013
2507.43	26.5658
2509.76	26.3409
2512.1	26.5932
2514.42	26.8708
2516.75	27.2473
2519.08	27.5459
2521.41	27.8321
2523.73	28.0334
2526.06	28.281
2528.38	28.4395
2530.71	28.4064
2533.03	28.3003
2535.35	28.0624
2537.67	27.6806
2539.99	27.3645
2542.31	27.0789
2544.63	26.7735
2546.95	26.5113
2549.26	26.3287
2551.58	26.1897
2553.89	26.2013
2556.21	26.1905
2558.52	26.2908
2560.84	26.4022
2563.15	26.4746
2565.46	26.5658
2567.77	26.6702
2570.08	26.7277
2572.39	26.8227
2574.7	26.6732
2577	26.646
2579.31	26.5887
2581.61	26.5639
2583.92	26.5085
2586.22	26.4568
2588.53	26.409
2590.83	26.3628
2593.13	26.2175
2595.43	26.2934
2597.73	26.3942
2600.03	26.5814
2602.33	26.7676
2604.62	26.8505
2606.92	26.9383
2609.22	26.8078
2611.51	26.8119
2613.81	26.7519
2616.1	26.642
2618.39	26.6477
2620.68	26.7109
2622.97	26.7777
2625.26	26.7619
2627.55	26.763
2629.84	26.6749
2632.13	26.7953
2634.42	26.8031
2636.7	26.8202
2638.99	26.8272
2641.27	26.8396
2643.56	26.8296
2645.84	26.8077
2648.12	26.7864
2650.4	26.6647
2652.68	26.5734
2654.96	26.5025
2657.24	26.4062
2659.52	26.3041
2661.8	26.2254
2664.07	26.1331
2666.35	26.0512
2668.63	25.99
2670.9	25.9248
2673.17	25.9219
2675.45	25.9399
2677.72	25.9635
2679.99	25.9806
2682.26	26.0275
2684.53	26.1058
2686.8	26.1629
2689.06	26.1529
2691.33	26.1561
2693.6	26.2057
2695.86	26.2639
2698.13	26.3398
2700.39	26.3974
2702.66	26.4778
2704.92	26.5603
2707.18	26.7113
2709.44	26.6347
2711.7	26.5938
2713.96	26.5284
2716.22	26.5552
2718.47	26.4921
2720.73	26.8229
2722.99	27.2423
2725.24	29.2255
2727.5	27.8729
2729.75	27.1229
2732	26.27
2734.26	25.7253
2736.51	26.2152
2738.76	26.8727
2741.01	26.8713
2743.25	27.5542
2745.5	32.5862
2747.75	24.3023
2750	24.7812
2752.24	25.4667
2754.49	26.3215
2756.73	26.5951
2758.98	26.6608
2761.22	26.7304
2763.46	27.0284
2765.7	27.0326
2767.94	27.0062
2770.18	26.9243
2772.42	26.8413
2774.66	26.8277
2776.9	26.8488
2779.13	26.9698
2781.37	27.9852
2783.6	27.8329
2785.84	27.7884
2788.07	27.8167
2790.3	27.9938
2792.53	27.1501
2794.77	26.6536
2797	26.4498
2799.23	26.612
2801.45	26.8463
2803.68	27.1055
2805.91	27.3287
2808.14	27.605
2810.36	27.8387
2812.59	28.0593
2814.81	28.2047
2817.03	28.3334
2819.26	28.3796
2821.48	28.2758
2823.7	28.112
2825.92	27.929
2828.14	27.7312
2830.36	27.518
2832.57	27.3001
2834.79	27.1083
2837.01	26.7902
2839.22	26.6502
2841.44	26.6421
2843.65	26.6273
2845.87	26.6419
2848.08	26.6967
2850.29	26.8548
2852.5	27.0042
2854.71	27.2301
2856.92	27.4233
2859.13	27.6358
2861.34	27.7923
2863.55	27.9891
2865.75	28.0607
2867.96	28.1494
2870.16	28.1603
2872.37	28.2294
2874.57	28.1341
2876.77	27.8355
2878.98	27.6176
2881.18	27.3995
2883.38	27.2098
2885.58	27.1358
2887.78	27.0562
2889.97	27.0266
2892.17	27.1361
2894.37	27.2397
2896.56	27.3404
2898.76	27.4542
2900.95	27.5526
2903.15	27.6319
2905.34	27.5391
2907.53	27.2947
2909.72	27.2263
2911.91	27.2217
2914.1	27.2476
2916.29	27.3179
2918.48	27.4011
2920.67	27.4675
2922.86	27.57
2925.04	27.6732
2927.23	27.7907
2929.41	28.4275
2931.6	28.1567
2933.78	27.9152
2935.96	27.6367
2938.14	27.3797
2940.32	27.1584
2942.5	26.738
2944.68	26.422
2946.86	26.1864
2949.04	26.2325
2951.22	26.3886
2953.39	26.5523
2955.57	26.7808
2957.74	27.0428
2959.92	27.2752
2962.09	27.5075
2964.26	27.5633
2966.44	27.6862
2968.61	27.7685
2970.78	27.9435
2972.95	28.0865
2975.12	28.4091
2977.28	28.4904
2979.45	28.6315
2981.62	28.6701
2983.79	28.5958
2985.95	28.5071
2988.11	28.4088
2990.28	28.2003
2992.44	28.0442
2994.6	27.7078
2996.77	27.34
2998.93	27.016
3001.09	26.7227
3003.25	26.4489
3005.4	26.265
3007.56	26.1911
3009.72	26.1025
3011.88	26.0182
3014.03	26.0827
3016.19	26.2408
3018.34	26.3803
3020.49	26.5913
3022.65	26.7953
3024.8	27.0539
3026.95	27.282
3029.1	27.5497
3031.25	27.8195
3033.4	28.1225
3035.55	28.268
3037.7	28.3798
3039.84	28.4837
3041.99	28.569
3044.13	28.6831
3046.28	28.7148
3048.42	28.7424
3050.57	28.7681
3052.71	28.7473
3054.85	28.7054
3056.99	28.4552
3059.13	28.0722
3061.27	27.6354
3063.41	27.1344
3065.55	26.7085
3067.69	26.0753
3069.82	25.6359
3071.96	25.2511
3074.09	25.2623
3076.23	25.6556
3078.36	25.9286
3080.5	26.2004
3082.63	26.5386
3084.76	26.9691
3086.89	27.4116
3089.02	27.8679
3091.15	28.2698
3093.28	28.5993
3095.41	28.9132
3097.53	29.131
3099.66	29.1991
3101.79	29.0362
3103.91	28.8622
3106.04	28.7073
3108.16	28.541
3110.28	28.2788
3112.41	27.9757
3114.53	27.7122
3116.65	27.4798
3118.77	27.2965
3120.89	27.3511
3123.01	27.5261
3125.12	27.9476
3127.24	28.3396
3129.36	28.7312
3131.47	29.1236
3133.59	29.4879
3135.7	29.9763
3137.82	30.1776
3139.93	30.8231
3142.04	30.7635
3144.15	30.6139
3146.27	30.3943
3148.38	30.048
3150.49	29.6913
3152.59	29.4094
3154.7	29.1347
3156.81	28.8576
3158.92	28.6118
3161.02	28.3742
3163.13	28.2043
3165.23	28.1715
3167.33	28.2807
3169.44	28.353
3171.54	28.3846
3173.64	28.465
3175.74	28.5898
3177.84	28.7954
3179.94	28.9954
3182.04	29.1731
3184.14	29.3419
3186.24	29.4565
3188.33	29.4057
3190.43	29.3407
3192.52	29.2688
3194.62	29.1579
3196.71	29.0828
3198.81	28.9854
3200.9	28.8845
3202.99	28.8449
3205.08	28.8301
3207.17	28.8534
3209.26	28.9135
3211.35	29.0065
3213.44	29.1144
3215.53	29.2506
3217.61	29.3668
3219.7	29.5115
3221.79	29.645
3223.87	29.8246
3225.95	29.7852
3228.04	29.6365
3230.12	29.4155
3232.2	29.2431
3234.28	29.0699
3236.36	28.9463
3238.44	29.3503
3240.52	29.301
3242.6	29.4889
3244.68	29.062
3246.76	28.6392
3248.83	28.3347
3250.91	28.2272
3252.98	28.1607
3255.06	28.1549
3257.13	28.0033
3259.2	28.1368
